Filename	collagen_sample(stress relaxation)
Instrument name	5343-0525
Operator	sw
rundate	2023-12-20
Sample name	Collagen_sample(stress relaxation)
Geometry name	20.0mm parallel plate, Peltier plate Stainless steel  - 19165
Procedure name	Stress relaxation
proceduresegments	Stress relaxation
[File Parameters]
Name	collagen_sample(stress relaxation)
Instrument type	Discovery HR20
Instrument serial number	5343-0525
Instrument name	5343-0525
Instrument location	Unknown
Company name	snu
Trios version	5.4.0.300
File name	C:\Users\JHELAB\Desktop\Data\Sungwoo\새 폴더\Collagen_sample(stress relaxation).tri
Instrument firmware version	11.16
Run date	2023-12-20 오후 5:18:56
User at run start	DESKTOP-GL4J1MR\JHELAB
[Geometry Parameters]
Geometry Type	Parallel plate
Name	20.0mm parallel plate, Peltier plate Stainless steel  - 19165
Diameter	20.0 mm
Gap	1000.0 µm
Loading gap	45000.0 µm
Trim gap offset	50.0 µm
Disposable	Yes
Material	Stainless steel
Environmental System	Peltier plate
Surface finish	Standard
Disposable	Yes
Solvent Trap	No
Serial number	500318419165
Notes	
[Geometry Extended Parameters]
Expansion coefficient	0.417464 µm/°C
Expansion coefficient enabled	yes
Compliance	1.03 mrad/N.m
Geometry Inertia	1.67784 µN.m.s²
Friction	0.28506 µN.m/(rad/s)
Friction correction enabled	yes
Stress constant	636620 Pa/N.m
Strain constant	10.0 1/rad
Normal Stress Constant	6366.2 Pa/N
Fluid Density Constant	5.23599e-12
[Instrument Options]
ETC camera available	no
Friction	0.285060 µN.m/(rad/s)
Friction calibration date	2023-12-20 오후 1:29:05
Friction correction enabled	yes
Rotational mapping date	2023-12-20 오후 1:47:23
Rotational mapping geometry	20.0mm parallel plate, Peltier plate Stainless steel  - 19165
Rotational mapping number of iterations	2
Rotational mapping type	fast
Smart swap enabled	no
[Temperature Options]
Current temperature system compensation	0.417464 µm/°C
Current temperature system offset	0.000 °C
Current temperature system span	1.000
Gap temperature compensation calibration date	2023-12-20 오후 1:43:50
Gap temperature compensation enabled	yes
Purge gas only (no active cooling)	no
Temperature control enabled	yes
Temperature system control	Peltier plate
Upper temperature system fitted	no
Temperature wait duration	00:00:10 hh:mm:ss
Temperature wait tolerance	0.200000 °C
[Inertia Options]
Instrument inertia	20.9752 µN.m.s²
Instrument inertia calibration date	2023-12-20 오후 1:27:18
[Gap Options]
Axial force for sample compression	1.00000 N
Closure distance	1000.00 µm
Closure profile	none
Closure velocity	100.000 µm/s
Gap velocity (coarse)	32000.0 µm/s
Gap velocity (fine)	3000.00 µm/s
Gap velocity (other)	32000.0 µm/s
Gap zero mode	standard (DHR) or deceleration (AR)
Gap handling at start of test	Flag mismatches between geometry and instrument gap
Gap tolerance	4.00000 µm
Gap wait duration	00:00:02 hh:mm:ss
Override wait for gap	no
[Axial Force Control]
Axial force action outside range	Return to window
Control axial force active	no
Control axial force max gap change up	10000.0 µm
Control axial force min gap change down	10000.0 µm
Control axial force sensitivity	0.200000 N
Control axial force set initial value	yes
Control axial force type	Compression
Controlled axial force	5.00000 N
[Flow Options]
Flow collect all points	yes
Flow collect negative shear rate data	yes
Flow inertia correction	yes
Flow non-steady state minimum velocity	1.00000e-6 rad/s
Flow torque limit	0.0100000 µN.m
Flow velocity limit	1.00000e-6 rad/s
Flow velocity tolerance	5.00000 %
Flow zero strain at start of step	yes
[Oscillation Options]
Oscillation displacement limit	1.00000e-5 rad
Oscillation displacement tolerance	5.00000 %
Oscillation raw phase limit	170.000 °
Oscillation torque limit	0.100000 µN.m
Oscillation torque tolerance	1.00000 %
Oscillation velocity tolerance	5.00000 %
[Conditioning Options]
Zero axial force before run	no
Zero speed after preshear	Leave as is
Zero velocity threshold	0.100000 rad/s
[Experiment all steps options]
Maximum axial force limit	50.0000 N
Minimum axial force limit	0.100000 N
Temperature tolerance (results)	1.00000 °C
[step]
Stress relaxation - 1
Torque	Displacement	Step time	Temperature	Axial force	Gap	Modulus
µN.m	rad	s	°C	N	µm	Pa
0.0772311	0.00000	0.00000	37.00	-3.73459e-3	1999.99	
4116.59	2.33299e-6	5.44000e-4	37.00	-1.02997e-3	1999.99	2.24663e8
27417.2	3.22857e-4	1.56800e-3	37.00	3.79944e-3	1999.99	1.08124e7
32844.6	2.04252e-3	2.59200e-3	37.00	5.59616e-3	1999.99	2047410
13531.0	5.11326e-3	3.61600e-3	37.00	-6.29044e-3	1999.99	336931
-5829.92	8.37573e-3	4.64000e-3	37.00	-0.0216484	1999.99	-88623.2
-11088.5	0.0111260	5.66400e-3	37.00	-0.0205040	1999.99	-126894
-7392.74	0.0133654	6.68800e-3	37.00	-4.26865e-3	1999.99	-70425.6
-2748.26	0.0153306	7.71200e-3	37.00	4.32587e-3	1999.99	-22824.8
-6765.04	0.0172287	8.73600e-3	37.00	-2.00653e-3	1999.99	-49994.8
-13073.4	0.0187345	9.76000e-3	37.00	-0.0119591	1999.99	-88849.0
-12653.9	0.0195408	0.0107840	37.00	-8.49915e-3	1999.99	-82450.2
-7233.46	0.0198310	0.0118080	37.00	4.19617e-4	1999.99	-46441.9
-2604.84	0.0199087	0.0128320	37.00	1.29700e-4	1999.99	-16658.9
-650.771	0.0199419	0.0138560	37.00	-3.07083e-3	1999.99	-4154.99
-333.685	0.0199672	0.0148800	37.00	-2.09808e-3	1999.99	-2127.78
-393.682	0.0199792	0.0159040	37.00	3.43323e-5	1999.99	-2508.85
-322.263	0.0199732	0.0169280	37.00	-7.40051e-4	1999.99	-2054.33
-127.131	0.0199554	0.0179520	37.00	-2.14005e-3	1999.99	-811.145
43.8371	0.0199349	0.0189760	37.00	-9.57489e-4	1999.99	279.985
124.458	0.0199184	0.0200000	37.00	2.68555e-3	1999.99	795.563
120.106	0.0199080	0.0210240	37.00	3.95203e-3	1999.99	768.152
88.1505	0.0199018	0.0220480	37.00	1.44958e-4	1999.99	563.948
62.5952	0.0198986	0.0230720	37.00	-3.81088e-3	1999.99	400.521
50.7428	0.0198972	0.0240960	37.00	-4.85611e-3	1999.99	324.705
47.3830	0.0198974	0.0251200	37.00	-2.77710e-3	1999.99	303.203
41.3200	0.0198991	0.0261440	37.00	8.31604e-4	1999.99	264.384
32.3804	0.0199020	0.0271680	37.00	3.26157e-3	1999.99	207.153
23.8521	0.0199057	0.0281920	37.00	1.79672e-3	1999.99	152.565
18.3282	0.0199099	0.0292160	37.00	-1.72424e-3	1999.99	117.209
14.0053	0.0199142	0.0302400	37.00	-4.04739e-3	1999.99	89.5439
11.0582	0.0199188	0.0312640	37.00	-3.42941e-3	1999.99	70.6851
8.39626	0.0199233	0.0322880	37.00	-1.64413e-3	1999.99	53.6576
7.43535	0.0199277	0.0333120	37.00	-7.62939e-4	1999.99	47.5063
7.59566	0.0199320	0.0343360	37.00	-1.13297e-3	1999.99	48.5202
5.81615	0.0199362	0.0353600	37.00	-1.10626e-3	1999.99	37.1449
3.74949	0.0199403	0.0363840	37.00	2.78473e-4	1999.99	23.9413
3.67320	0.0199441	0.0374080	37.00	2.26212e-3	1999.99	23.4497
4.57813	0.0199477	0.0384320	37.00	3.54004e-3	1999.99	29.2216
4.58432	0.0199511	0.0394560	37.00	3.42941e-3	1999.99	29.2560
2.27409	0.0199544	0.0404800	37.00	2.26212e-3	1999.99	14.5102
2.18592	0.0199589	0.0420160	37.00	-6.51550e-3	1999.99	13.9446
7.45113	0.0199638	0.0440640	37.00	-6.66046e-3	1999.99	47.5212
6.42048	0.0199684	0.0461120	37.00	3.74222e-3	1999.99	40.9384
6.14923	0.0199725	0.0481600	37.00	-1.06049e-3	1999.99	39.2009
7.13008	0.0199760	0.0502080	37.00	-2.66266e-3	1999.99	45.4458
6.68934	0.0199791	0.0522560	37.00	2.77328e-3	1999.99	42.6300
5.09252	0.0199820	0.0543040	37.00	-2.47574e-3	1999.99	32.4491
4.87390	0.0199844	0.0563520	37.00	-1.88446e-3	1999.99	31.0522
6.76186	0.0199864	0.0584000	37.00	-1.75476e-4	1999.99	43.0765
4.79747	0.0199883	0.0604480	37.00	-1.10245e-3	1999.99	30.5594
6.68681	0.0199897	0.0624960	37.00	1.69373e-3	1999.99	42.5913
7.97526	0.0199908	0.0645440	37.00	-6.57272e-3	1999.99	50.7951
9.73566	0.0199919	0.0665920	37.00	-4.38690e-4	1999.99	62.0040
5.46232	0.0199931	0.0686400	37.00	4.80652e-3	1999.99	34.7860
7.76588	0.0199939	0.0706880	37.00	-6.26755e-3	1999.99	49.4540
6.53103	0.0199948	0.0727360	37.00	2.28882e-5	1999.99	41.5884
4.61278	0.0199956	0.0747840	37.00	1.13678e-3	1999.99	29.3721
6.94601	0.0199961	0.0768320	37.00	-4.34494e-3	1999.99	44.2280
6.48094	0.0199966	0.0788800	37.00	-1.43433e-3	1999.99	41.2657
5.95519	0.0199971	0.0809280	37.00	-7.93457e-4	1999.99	37.9173
7.00767	0.0199974	0.0829760	37.00	8.04901e-4	1999.99	44.6179
7.95156	0.0199976	0.0850240	37.00	3.17383e-3	1999.99	50.6270
7.48148	0.0199979	0.0870720	37.00	2.32697e-4	1999.99	47.6334
7.05334	0.0199981	0.0891200	37.00	-2.59018e-3	1999.99	44.9069
6.33531	0.0199985	0.0911680	37.00	-5.79834e-4	1999.99	40.3347
5.02308	0.0199987	0.0932160	37.00	-7.92313e-3	1999.99	31.9798
7.88196	0.0199988	0.0952640	37.00	-6.11115e-3	1999.99	50.1809
3.28657	0.0199992	0.0973120	37.00	4.71878e-3	1999.99	20.9237
7.80540	0.0199990	0.0993600	37.00	-1.62888e-3	1999.99	49.6929
7.76765	0.0199991	0.101408	37.00	0.00000	1999.99	49.4523
4.02833	0.0199994	0.103456	37.00	3.84903e-3	1999.99	25.6458
7.08096	0.0199993	0.105504	37.00	-3.59344e-3	1999.99	45.0800
7.13950	0.0199994	0.107552	37.00	-6.14166e-4	1999.99	45.4527
6.72927	0.0199994	0.109600	37.00	-1.38092e-3	1999.99	42.8410
6.28596	0.0199995	0.111648	37.00	-5.30624e-3	1999.99	40.0184
5.27075	0.0199997	0.113696	37.00	-2.89917e-4	1999.99	33.5550
5.71807	0.0199997	0.115744	37.00	3.40652e-3	1999.99	36.4027
6.29601	0.0199997	0.117792	37.00	-1.71661e-3	1999.99	40.0820
6.35396	0.0199996	0.119840	37.00	-4.08554e-3	1999.99	40.4511
6.99063	0.0199997	0.121888	37.00	3.97873e-3	1999.99	44.5042
5.38161	0.0199998	0.124960	37.00	-6.09970e-3	1999.99	34.2605
5.97748	0.0199998	0.129056	37.00	-1.72043e-3	1999.99	38.0540
6.02282	0.0199998	0.133152	37.00	3.81470e-4	1999.99	38.3426
5.78606	0.0199998	0.137248	37.00	3.09372e-3	1999.99	36.8353
5.55208	0.0199999	0.141344	37.00	-6.16074e-3	1999.99	35.3456
5.51517	0.0199999	0.145440	37.00	2.38800e-3	1999.99	35.1106
6.57365	0.0199998	0.149536	37.00	1.57928e-3	1999.99	41.8494
5.30408	0.0199999	0.153632	37.00	-2.24304e-3	1999.99	33.7668
5.69529	0.0199999	0.157728	37.00	-2.21252e-4	1999.99	36.2574
4.95525	0.0199999	0.161824	37.00	9.53674e-5	1999.99	31.5460
5.94724	0.0199998	0.165920	37.00	-2.38800e-3	1999.99	37.8614
5.39253	0.0199999	0.170016	37.00	2.21252e-3	1999.99	34.3299
5.17640	0.0199999	0.174112	37.00	-6.55746e-3	1999.99	32.9539
5.43973	0.0199999	0.178208	37.00	7.85828e-4	1999.99	34.6304
5.42157	0.0199999	0.182304	37.00	1.56403e-3	1999.99	34.5148
4.81738	0.0200000	0.186400	37.00	-6.94275e-4	1999.99	30.6683
6.17167	0.0199998	0.190496	37.00	-1.87683e-3	1999.99	39.2903
4.96624	0.0199999	0.194592	37.00	-3.81470e-5	1999.99	31.6161
6.22265	0.0199998	0.198688	37.00	-2.16293e-3	1999.99	39.6148
4.13541	0.0200000	0.202784	37.00	-3.17001e-3	1999.99	26.3267
4.47348	0.0200000	0.206880	37.00	4.36783e-3	1999.99	28.4789
5.97367	0.0199998	0.210976	37.00	-4.30298e-3	1999.99	38.0296
4.96579	0.0199999	0.215072	37.00	-1.43051e-3	1999.99	31.6133
5.29939	0.0199999	0.219168	37.00	-5.45502e-3	1999.99	33.7370
3.81597	0.0200000	0.223264	37.00	7.83920e-3	1999.99	24.2931
6.61880	0.0199998	0.227360	37.00	-3.86047e-3	1999.99	42.1368
4.22572	0.0199999	0.231456	37.00	-3.27301e-3	1999.99	26.9017
5.99414	0.0199998	0.235552	37.00	3.13950e-3	1999.99	38.1601
4.21563	0.0200000	0.239648	37.00	-3.88336e-3	1999.99	26.8374
4.13907	0.0200000	0.243744	37.00	-3.54385e-3	1999.99	26.3500
5.58217	0.0199998	0.247840	37.00	1.32370e-3	1999.99	35.5373
4.73139	0.0199999	0.251936	37.00	-3.81470e-5	1999.99	30.1210
5.62360	0.0199998	0.256032	37.00	-5.72205e-4	1999.99	35.8011
4.26707	0.0199999	0.260128	37.00	8.58307e-4	1999.99	27.1650
5.22221	0.0199999	0.264224	37.00	-6.52313e-3	1999.99	33.2456
3.98113	0.0199999	0.268320	37.00	-2.00272e-3	1999.99	25.3446
5.26754	0.0199998	0.272416	37.00	5.42831e-3	1999.99	33.5343
4.96310	0.0199999	0.276512	37.00	-3.17001e-3	1999.99	31.5961
4.28262	0.0199999	0.280608	37.00	-4.06647e-3	1999.99	27.2640
4.66686	0.0199999	0.284704	37.00	-5.31769e-3	1999.99	29.7101
5.21369	0.0199998	0.290848	37.00	-3.32260e-3	1999.99	33.1915
4.36840	0.0199999	0.299040	37.00	-6.40869e-4	1999.99	27.8101
5.02786	0.0199998	0.307232	37.00	-8.86536e-3	1999.99	32.0084
4.37327	0.0199999	0.315424	37.00	4.42505e-3	1999.99	27.8411
4.51986	0.0199999	0.323616	37.00	4.57764e-5	1999.99	28.7743
4.35346	0.0199999	0.331808	37.00	-2.89154e-3	1999.99	27.7150
4.28162	0.0199999	0.340000	37.00	-2.74658e-4	1999.99	27.2576
4.49889	0.0199999	0.348192	37.00	-4.17328e-3	1999.91	28.6397
4.92267	0.0199998	0.356384	37.00	-3.39890e-3	1999.91	31.3375
4.34865	0.0199999	0.364576	37.00	1.73950e-3	1999.91	27.6832
4.32522	0.0199999	0.372768	37.00	-2.88010e-3	1999.91	27.5341
3.96330	0.0199999	0.380960	37.00	-8.54492e-4	1999.91	25.2301
4.54646	0.0199998	0.389152	37.00	4.07791e-3	1999.91	28.9426
4.17704	0.0199999	0.397344	37.00	-7.74384e-4	1999.91	26.5908
4.64426	0.0199998	0.405536	37.00	-1.42670e-3	1999.91	29.5652
4.08326	0.0199999	0.413728	37.00	6.94275e-4	1999.91	25.9937
4.71255	0.0199998	0.421920	37.00	-1.48773e-4	1999.91	29.9999
3.42235	0.0200000	0.430112	37.00	2.63214e-4	1999.91	21.7864
4.68511	0.0199998	0.438304	37.00	-7.02286e-3	1999.91	29.8252
4.36173	0.0199999	0.446496	37.00	-5.95093e-4	1999.91	27.7665
4.26245	0.0199999	0.454688	37.00	1.25885e-4	1999.91	27.1345
3.85174	0.0199999	0.462880	37.00	-9.71985e-3	1999.91	24.5200
4.33532	0.0199998	0.471072	37.00	1.86920e-3	1999.91	27.5984
3.87172	0.0199999	0.479264	37.00	-2.45285e-3	1999.91	24.6471
4.80535	0.0199998	0.487456	37.00	-2.49863e-3	1999.91	30.5907
3.35250	0.0199999	0.495648	37.00	3.46756e-3	1999.91	21.3418
4.15792	0.0199999	0.503840	37.00	-2.58255e-3	1999.91	26.4691
3.94144	0.0199998	0.512032	37.00	-6.56891e-3	1999.91	25.0910
4.42117	0.0199998	0.520224	37.00	-2.17056e-3	1999.91	28.1450
3.83681	0.0199999	0.528416	37.00	3.96729e-4	1999.91	24.4249
3.92069	0.0199999	0.536608	37.00	-6.89316e-3	1999.91	24.9588
3.99566	0.0199998	0.544800	37.00	-2.36511e-4	1999.91	25.4361
3.93231	0.0199999	0.552992	37.00	-2.91443e-3	1999.99	25.0339
4.15920	0.0199998	0.561184	37.00	-6.35910e-3	1999.99	26.4783
3.74777	0.0199999	0.569376	37.00	1.47629e-3	1999.99	23.8590
4.02709	0.0199999	0.577568	37.00	-3.53622e-3	1999.99	25.6373
3.76037	0.0199999	0.585760	37.00	-2.89917e-3	1999.99	23.9393
3.78869	0.0199999	0.593952	37.00	-8.12531e-4	1999.99	24.1196
4.23188	0.0199998	0.602144	37.00	-1.17111e-3	1999.99	26.9411
3.55441	0.0199999	0.610336	37.00	2.42615e-3	1999.99	22.6281
4.08556	0.0199998	0.622624	37.00	-4.56619e-3	1999.99	26.0096
3.46083	0.0199999	0.639008	37.00	2.02179e-4	1999.99	22.0323
4.00849	0.0199998	0.655392	37.00	-4.68445e-3	1999.99	25.5189
3.82776	0.0199999	0.671776	37.00	-3.94440e-3	1999.99	24.3683
3.78761	0.0199998	0.688160	37.00	-1.48773e-3	1999.99	24.1127
3.69843	0.0199999	0.704544	37.00	2.26593e-3	1999.99	23.5450
3.61885	0.0199999	0.720928	37.00	-1.75858e-3	1999.99	23.0383
3.61072	0.0199999	0.737312	37.00	1.64413e-3	1999.99	22.9866
3.71958	0.0199998	0.753696	37.00	-4.61578e-4	1999.95	23.6792
3.74878	0.0199998	0.770080	37.00	5.73730e-3	1999.95	23.8651
3.79747	0.0199998	0.786464	37.00	1.86920e-4	1999.95	24.1750
3.36340	0.0199999	0.802848	37.00	4.13513e-3	1999.95	21.4117
3.49044	0.0199999	0.819232	37.00	-5.13458e-3	1999.95	22.2204
3.72659	0.0199998	0.835616	37.00	1.60217e-3	1999.95	23.7238
3.54396	0.0199998	0.852000	37.00	-2.25830e-3	1999.95	22.5611
3.69341	0.0199998	0.868384	37.00	-2.46048e-3	1999.95	23.5126
3.54407	0.0199999	0.884768	37.00	3.49045e-3	1999.95	22.5619
3.25268	0.0199999	0.901152	37.00	5.49316e-3	1999.95	20.7068
3.60539	0.0199998	0.917536	37.00	7.85828e-4	1999.95	22.9522
3.62336	0.0199998	0.933920	37.00	1.52969e-3	1999.95	23.0666
3.36408	0.0199999	0.950304	37.00	-7.97653e-3	1999.99	21.4164
3.34630	0.0199998	0.966688	37.00	2.57492e-3	1999.99	21.3032
3.47922	0.0199998	0.983072	37.00	2.68555e-3	1999.99	22.1494
3.39860	0.0199998	0.999456	37.00	3.43323e-4	1999.99	21.6362
3.42679	0.0199998	1.01584	37.00	-6.27899e-3	1999.99	21.8157
3.36103	0.0199999	1.03222	37.00	2.53677e-3	1999.99	21.3970
3.46201	0.0199998	1.04861	37.00	1.95694e-3	1999.99	22.0399
3.49290	0.0199998	1.06499	37.00	2.90680e-3	1999.99	22.2366
3.29358	0.0199998	1.08138	37.00	3.33023e-3	1999.99	20.9676
3.37683	0.0199998	1.09776	37.00	-1.22833e-3	1999.99	21.4976
3.49457	0.0199998	1.11414	37.00	1.48773e-3	1999.99	22.2472
3.21268	0.0199999	1.13053	37.00	-1.90353e-3	1999.99	20.4526
3.29423	0.0199998	1.14691	37.00	1.34659e-3	1999.99	20.9717
3.34921	0.0199998	1.16330	37.00	-3.49426e-3	1999.99	21.3218
3.30147	0.0199998	1.17968	37.00	-6.23703e-3	1999.99	21.0179
3.15742	0.0199999	1.19606	37.00	-3.03650e-3	1999.99	20.1008
3.27144	0.0199998	1.21245	37.00	-5.90134e-3	1999.99	20.8267
3.25418	0.0199998	1.22883	37.00	-7.65991e-3	1999.99	20.7168
3.39379	0.0199998	1.24522	37.00	-1.72424e-3	1999.99	21.6056
3.24776	0.0199998	1.26160	37.00	3.25775e-3	1999.99	20.6760
3.20691	0.0199998	1.28618	37.00	-1.14822e-3	1999.99	20.4159
3.18629	0.0199998	1.31894	37.00	-3.50571e-3	1999.99	20.2846
3.23953	0.0199998	1.35171	37.00	2.88773e-3	1999.99	20.6236
3.19468	0.0199998	1.38448	37.00	-4.19998e-3	1999.99	20.3380
3.15401	0.0199998	1.41725	37.00	4.73022e-3	1999.99	20.0791
3.07392	0.0199998	1.45002	37.00	-5.68771e-3	1999.99	19.5693
3.13709	0.0199998	1.48278	37.00	5.79834e-4	1999.99	19.9714
3.12173	0.0199998	1.51555	37.00	5.46265e-3	1999.99	19.8737
3.09537	0.0199998	1.54832	37.00	-2.42233e-3	1999.99	19.7059
3.12944	0.0199998	1.58109	37.00	-7.06100e-3	1999.99	19.9227
3.00686	0.0199998	1.61386	37.00	2.40326e-3	1999.99	19.1424
3.11619	0.0199997	1.64662	37.00	-1.56784e-3	1999.99	19.8384
3.02779	0.0199998	1.67939	37.00	4.50134e-4	1999.99	19.2756
3.02725	0.0199998	1.71216	37.00	1.04141e-3	1999.99	19.2722
2.99456	0.0199998	1.74493	37.00	-8.35419e-4	1999.99	19.0641
3.01007	0.0199998	1.77770	37.00	-1.26648e-3	1999.99	19.1628
2.93231	0.0199998	1.81046	37.00	-3.03650e-3	1999.99	18.6678
3.01331	0.0199997	1.84323	37.00	8.65936e-4	1999.99	19.1835
2.92439	0.0199997	1.87600	37.00	-7.41959e-3	1999.99	18.6174
3.00229	0.0199997	1.90877	37.00	2.15912e-3	1999.99	19.1133
2.92700	0.0199997	1.94154	37.00	-5.74875e-3	1999.99	18.6340
2.96080	0.0199997	1.97430	37.00	9.41849e-3	1999.95	18.8489
2.88008	0.0199997	2.00707	37.00	-9.70840e-3	1999.95	18.3349
2.94643	0.0199997	2.03984	37.00	3.54767e-3	1999.95	18.7574
2.92595	0.0199997	2.07261	37.00	4.17709e-3	1999.95	18.6270
2.85110	0.0199997	2.10538	37.00	-2.14005e-3	1999.95	18.1505
2.88685	0.0199997	2.13814	37.00	2.60544e-3	1999.95	18.3781
2.88666	0.0199996	2.17091	37.00	-7.32422e-4	2000.01	18.3775
2.91308	0.0199996	2.20368	37.00	2.83051e-3	2000.01	18.5457
2.82965	0.0199997	2.23645	37.00	1.48010e-3	2000.01	18.0145
2.81036	0.0199996	2.26922	37.00	-7.17545e-3	2000.01	17.8917
2.88210	0.0199996	2.30198	37.00	-1.35803e-3	2000.01	18.3485
2.83869	0.0199996	2.33475	37.00	-2.93350e-3	2000.01	18.0721
2.76540	0.0199996	2.36752	37.00	4.57764e-4	1999.99	17.6053
2.87003	0.0199996	2.40029	37.00	-5.68390e-4	1999.99	18.2715
2.75607	0.0199996	2.43306	37.00	-2.87247e-3	1999.99	17.5459
2.88648	0.0199995	2.46582	37.00	1.14441e-5	1999.99	18.3763
2.70929	0.0199996	2.49859	37.00	-2.88010e-3	1999.99	17.2481
2.84951	0.0199995	2.53136	37.00	-1.44958e-4	1999.99	18.1409
2.72211	0.0199996	2.56413	37.00	-4.76837e-3	1999.99	17.3298
2.76825	0.0199995	2.61328	37.00	2.90298e-3	1999.99	17.6236
2.76077	0.0199995	2.67882	37.00	-5.43594e-3	1999.99	17.5760
2.71747	0.0199995	2.74435	37.00	-1.72424e-3	1999.97	17.3002
2.71804	0.0199994	2.80989	37.00	2.34604e-3	1999.97	17.3038
2.70647	0.0199994	2.87542	37.00	7.36237e-4	1999.97	17.2302
2.70610	0.0199994	2.94096	37.00	-9.38416e-4	1999.99	17.2281
2.67352	0.0199994	3.00650	37.00	1.63651e-3	1999.99	17.0207
2.66328	0.0199993	3.07203	37.00	1.47247e-3	1999.99	16.9555
2.64956	0.0199993	3.13757	37.00	-2.86102e-4	1999.99	16.8682
2.61556	0.0199993	3.20310	37.00	1.22833e-3	1999.99	16.6517
2.63110	0.0199992	3.26864	37.00	3.04031e-3	1999.99	16.7507
2.60609	0.0199992	3.33418	37.00	2.44904e-3	1999.99	16.5915
2.59390	0.0199992	3.39971	37.00	-4.00162e-3	1999.99	16.5139
