Filename	collagen_sample(time sweep)
Instrument name	5343-0525
Operator	sw
rundate	2023-12-20
Sample name	Collagen_sample(time sweep)
Geometry name	20.0mm parallel plate, Peltier plate Stainless steel  - 19165
Procedure name	Time sweep
proceduresegments	Time sweep
[File Parameters]
Name	collagen_sample(time sweep)
Instrument type	Discovery HR20
Instrument serial number	5343-0525
Instrument name	5343-0525
Instrument location	Unknown
Company name	snu
Trios version	5.4.0.300
File name	C:\Users\JHELAB\Desktop\Data\Sungwoo\새 폴더\Collagen_sample(time sweep).tri
Instrument firmware version	11.16
Run date	2023-12-20 오후 1:57:02
User at run start	DESKTOP-GL4J1MR\JHELAB
[Geometry Parameters]
Geometry Type	Parallel plate
Name	20.0mm parallel plate, Peltier plate Stainless steel  - 19165
Diameter	20.0 mm
Gap	1000.0 µm
Loading gap	45000.0 µm
Trim gap offset	50.0 µm
Disposable	Yes
Material	Stainless steel
Environmental System	Peltier plate
Surface finish	Standard
Disposable	Yes
Solvent Trap	No
Serial number	500318419165
Notes	
[Geometry Extended Parameters]
Expansion coefficient	0.417464 µm/°C
Expansion coefficient enabled	yes
Compliance	1.03 mrad/N.m
Geometry Inertia	1.67784 µN.m.s²
Friction	0.28506 µN.m/(rad/s)
Friction correction enabled	yes
Stress constant	636620 Pa/N.m
Strain constant	10.0 1/rad
Normal Stress Constant	6366.2 Pa/N
Fluid Density Constant	5.23599e-12
[Instrument Options]
ETC camera available	no
Friction	0.285060 µN.m/(rad/s)
Friction calibration date	2023-12-20 오후 1:29:05
Friction correction enabled	yes
Rotational mapping date	2023-12-20 오후 1:47:23
Rotational mapping geometry	20.0mm parallel plate, Peltier plate Stainless steel  - 19165
Rotational mapping number of iterations	2
Rotational mapping type	fast
Smart swap enabled	no
[Temperature Options]
Current temperature system compensation	0.417464 µm/°C
Current temperature system offset	0.000 °C
Current temperature system span	1.000
Gap temperature compensation calibration date	2023-12-20 오후 1:43:50
Gap temperature compensation enabled	yes
Purge gas only (no active cooling)	no
Temperature control enabled	yes
Temperature system control	Peltier plate
Upper temperature system fitted	no
Temperature wait duration	00:00:10 hh:mm:ss
Temperature wait tolerance	0.200000 °C
[Inertia Options]
Instrument inertia	20.9752 µN.m.s²
Instrument inertia calibration date	2023-12-20 오후 1:27:18
[Gap Options]
Axial force for sample compression	1.00000 N
Closure distance	1000.00 µm
Closure profile	none
Closure velocity	100.000 µm/s
Gap velocity (coarse)	32000.0 µm/s
Gap velocity (fine)	3000.00 µm/s
Gap velocity (other)	32000.0 µm/s
Gap zero mode	standard (DHR) or deceleration (AR)
Gap handling at start of test	Flag mismatches between geometry and instrument gap
Gap tolerance	4.00000 µm
Gap wait duration	00:00:02 hh:mm:ss
Override wait for gap	no
[Axial Force Control]
Axial force action outside range	Return to window
Control axial force active	no
Control axial force max gap change up	10000.0 µm
Control axial force min gap change down	10000.0 µm
Control axial force sensitivity	0.200000 N
Control axial force set initial value	yes
Control axial force type	Compression
Controlled axial force	5.00000 N
[Flow Options]
Flow collect all points	yes
Flow collect negative shear rate data	yes
Flow inertia correction	yes
Flow non-steady state minimum velocity	1.00000e-6 rad/s
Flow torque limit	0.0100000 µN.m
Flow velocity limit	1.00000e-6 rad/s
Flow velocity tolerance	5.00000 %
Flow zero strain at start of step	yes
[Oscillation Options]
Oscillation displacement limit	1.00000e-5 rad
Oscillation displacement tolerance	5.00000 %
Oscillation raw phase limit	170.000 °
Oscillation torque limit	0.100000 µN.m
Oscillation torque tolerance	1.00000 %
Oscillation velocity tolerance	5.00000 %
[Conditioning Options]
Zero axial force before run	no
Zero speed after preshear	Leave as is
Zero velocity threshold	0.100000 rad/s
[Experiment all steps options]
Maximum axial force limit	50.0000 N
Minimum axial force limit	0.100000 N
Temperature tolerance (results)	1.00000 °C
[step]
Time sweep - 1
Storage modulus	Loss modulus	Tan(delta)	Angular frequency	Oscillation torque	Step time	Temperature	Raw phase	Oscillation displacement
Pa	Pa		rad/s	µN.m	s	°C	°	rad
-0.0193630	0.0957393	-4.94444	1.00000	0.0456557	9.29379	37.15	178.112	1.99999e-3
0.0173864	0.124618	7.16753	1.00000	0.0450745	19.2296	37.12	177.512	1.99902e-3
0.0500793	0.0136799	0.273165	1.00000	0.0445397	29.0882	37.09	179.724	1.99994e-3
4.57126e-3	-0.0800659	-17.5150	1.00000	0.0452744	39.0286	37.05	181.592	2.00007e-3
-0.0457411	0.233456	-5.10386	1.00000	0.0461917	48.8310	37.05	175.446	2.00001e-3
0.112015	3.10575e-3	0.0277261	1.00000	0.0435589	58.7519	37.02	179.936	1.99960e-3
0.0378336	-5.02866e-3	-0.132915	1.00000	0.0447390	68.8230	37.01	180.101	2.00027e-3
0.0700588	0.0267730	0.382150	1.00000	0.0442255	78.6122	37.01	179.455	1.99986e-3
-1.98118	6.61276	-3.33779	1.00000	0.129871	88.3501	37.03	126.352	2.01394e-3
10.2946	3.19657	0.310509	1.00000	0.125152	98.2743	37.02	23.3375	1.97477e-3
11.5034	5.90447	0.513280	1.00000	0.163779	108.032	37.01	34.4166	1.99609e-3
13.5255	7.38672	0.546134	1.00000	0.202958	117.879	37.00	34.7704	1.99511e-3
15.2144	6.63089	0.435829	1.00000	0.219589	127.893	37.00	28.2731	1.99727e-3
16.9789	6.30721	0.371474	1.00000	0.242072	137.834	37.00	24.1100	1.99613e-3
18.1364	6.52188	0.359601	1.00000	0.260229	147.770	37.00	23.1535	1.99754e-3
18.9427	6.85330	0.361790	1.00000	0.273882	157.575	37.00	23.1131	1.99741e-3
20.2110	6.98395	0.345552	1.00000	0.292937	167.496	37.00	21.9546	1.99666e-3
21.4685	7.42863	0.346026	1.00000	0.313881	177.552	37.00	21.7894	1.99698e-3
22.5047	7.70861	0.342533	1.00000	0.330768	187.563	37.00	21.4505	1.99791e-3
23.5864	8.03651	0.340726	1.00000	0.348399	197.436	37.00	21.2173	1.99760e-3
24.4619	8.15739	0.333474	1.00000	0.361974	207.351	37.00	20.7102	1.99799e-3
25.3868	8.38512	0.330294	1.00000	0.376830	216.796	37.01	20.4379	1.99803e-3
26.0060	8.73766	0.335987	1.00000	0.387854	226.678	37.01	20.7026	1.99794e-3
27.2509	8.77576	0.322036	1.00000	0.406226	236.462	37.01	19.8077	1.99715e-3
27.8651	9.20172	0.330224	1.00000	0.417794	246.408	37.02	20.2223	1.99827e-3
28.8536	9.26475	0.321095	1.00000	0.432623	256.344	37.01	19.6351	1.99780e-3
29.4752	9.68067	0.328434	1.00000	0.444167	266.264	37.01	20.0054	1.99852e-3
29.7814	9.56834	0.321286	1.00000	0.448176	276.190	37.00	19.5833	1.99890e-3
30.5646	9.72246	0.318095	1.00000	0.460394	285.559	37.00	19.3542	1.99812e-3
31.0980	9.87093	0.317414	1.00000	0.469136	295.620	37.00	19.2838	1.99839e-3
31.4437	9.81059	0.312005	1.00000	0.473967	305.478	37.00	18.9592	1.99848e-3
31.6526	10.0603	0.317836	1.00000	0.478563	315.559	37.00	19.2756	1.99934e-3
31.8621	10.1325	0.318012	1.00000	0.482087	325.620	37.00	19.2737	1.99951e-3
32.1964	10.0997	0.313691	1.00000	0.486859	335.676	37.00	19.0126	1.99946e-3
32.7486	10.0332	0.306370	1.00000	0.494387	345.393	37.00	18.5710	1.99809e-3
33.3048	10.0499	0.301755	1.00000	0.502925	355.337	37.00	18.2826	1.99884e-3
33.5808	10.3421	0.307978	1.00000	0.508575	365.283	37.01	18.6202	1.99916e-3
34.3379	10.3539	0.301530	1.00000	0.519705	375.208	37.00	18.2212	1.99831e-3
35.0191	10.5212	0.300442	1.00000	0.530713	385.014	37.00	18.1296	1.99845e-3
35.6085	10.5379	0.295939	1.00000	0.539628	394.933	37.01	17.8504	1.99861e-3
36.0990	10.8237	0.299835	1.00000	0.548568	404.721	37.00	18.0500	1.99942e-3
36.5690	10.8366	0.296332	1.00000	0.555432	414.609	37.00	17.8339	1.99864e-3
37.2001	11.0424	0.296838	1.00000	0.565839	424.712	37.00	17.8381	1.99860e-3
37.8592	11.1993	0.295815	1.00000	0.576363	434.828	37.00	17.7562	1.99830e-3
38.3781	11.1828	0.291386	1.00000	0.584160	444.795	37.00	17.4884	1.99870e-3
38.7172	11.4905	0.296781	1.00000	0.590911	454.692	37.00	17.7801	1.99944e-3
39.3192	11.2069	0.285023	1.00000	0.598491	464.586	37.00	17.0977	1.99907e-3
39.9299	11.6869	0.292685	1.00000	0.609646	474.535	37.00	17.5096	1.99827e-3
40.1063	11.9194	0.297194	1.00000	0.613671	484.455	37.00	17.7569	1.99920e-3
40.7466	11.7885	0.289312	1.00000	0.622421	494.483	37.00	17.2946	1.99850e-3
41.3913	12.1063	0.292484	1.00000	0.633493	503.726	37.00	17.4533	1.99826e-3
42.1007	12.0876	0.287112	1.00000	0.644067	513.613	37.00	17.1313	1.99835e-3
42.5151	12.2261	0.287571	1.00000	0.651120	522.976	37.00	17.1455	1.99898e-3
42.9244	12.4279	0.289529	1.00000	0.658217	532.700	37.00	17.2441	1.99906e-3
43.4724	12.3723	0.284602	1.00000	0.666137	542.527	37.00	16.9531	1.99893e-3
43.9537	12.3499	0.280975	1.00000	0.673318	552.311	37.00	16.7369	1.99901e-3
44.6875	12.5981	0.281915	1.00000	0.685212	562.121	37.00	16.7715	1.99826e-3
44.9645	13.0103	0.289347	1.00000	0.691473	572.093	37.00	17.1810	1.99889e-3
45.5111	13.0541	0.286833	1.00000	0.699726	581.893	37.00	17.0272	1.99851e-3
45.9298	13.1601	0.286527	1.00000	0.706684	591.868	37.00	17.0002	1.99902e-3
46.3892	13.1560	0.283599	1.00000	0.713552	601.683	37.00	16.8258	1.99893e-3
46.7916	13.3063	0.284374	1.00000	0.720265	611.603	37.00	16.8602	1.99893e-3
47.2835	13.3905	0.283196	1.00000	0.728028	621.609	37.00	16.7834	1.99882e-3
47.8596	13.5849	0.283848	1.00000	0.737522	631.337	37.00	16.8075	1.99871e-3
48.5142	13.7033	0.282460	1.00000	0.747821	641.215	37.00	16.7162	1.99857e-3
48.9708	13.9735	0.285343	1.00000	0.755464	651.011	37.00	16.8678	1.99740e-3
49.6649	14.0544	0.282984	1.00000	0.766793	660.897	37.01	16.7223	1.99878e-3
50.2211	14.0741	0.280244	1.00000	0.775197	670.822	37.00	16.5587	1.99866e-3
50.6756	14.2611	0.281420	1.00000	0.782909	680.590	37.00	16.6157	1.99873e-3
51.1817	14.4519	0.282364	1.00000	0.791425	690.578	37.00	16.6590	1.99886e-3
51.7017	14.4514	0.279516	1.00000	0.799128	700.597	37.01	16.4908	1.99855e-3
52.2630	14.7133	0.281524	1.00000	0.808645	710.716	37.00	16.5928	1.99828e-3
52.6865	14.8113	0.281121	1.00000	0.815724	720.813	37.00	16.5630	1.99895e-3
53.3594	14.8492	0.278286	1.00000	0.825806	730.686	37.00	16.3937	1.99847e-3
54.1256	15.1327	0.279585	1.00000	0.838538	740.522	37.00	16.4534	1.99831e-3
54.5879	15.2004	0.278457	1.00000	0.846009	750.354	37.00	16.3832	1.99878e-3
55.0127	15.3164	0.278415	1.00000	0.852943	760.274	36.99	16.3742	1.99884e-3
55.6978	15.4927	0.278155	1.00000	0.863815	770.187	37.00	16.3492	1.99834e-3
56.0206	15.4996	0.276676	1.00000	0.869114	779.981	37.00	16.2620	1.99924e-3
56.6185	15.8642	0.280195	1.00000	0.879397	789.807	37.00	16.4488	1.99852e-3
57.4470	16.0032	0.278573	1.00000	0.892383	799.628	37.00	16.3467	1.99826e-3
58.0021	16.1386	0.278241	1.00000	0.901644	809.433	37.00	16.3204	1.99891e-3
58.4186	16.2241	0.277722	1.00000	0.908397	819.291	37.00	16.2859	1.99914e-3
59.1179	16.2531	0.274927	1.00000	0.918826	829.048	37.00	16.1212	1.99865e-3
59.5853	16.4324	0.275780	1.00000	0.926912	838.791	37.00	16.1624	1.99919e-3
60.1342	16.9326	0.281581	1.00000	0.937172	848.732	37.00	16.4768	1.99870e-3
60.6532	16.7781	0.276624	1.00000	0.944406	858.454	37.00	16.1955	1.99891e-3
61.1919	17.0908	0.279299	1.00000	0.953628	867.904	37.00	16.3370	1.99832e-3
61.9465	17.3794	0.280554	1.00000	0.966172	877.745	37.00	16.3971	1.99814e-3
62.4474	17.3649	0.278073	1.00000	0.973985	887.601	37.00	16.2538	1.99882e-3
63.0404	17.4506	0.276817	1.00000	0.983205	896.917	37.00	16.1772	1.99866e-3
63.6239	17.5227	0.275411	1.00000	0.992411	906.957	37.00	16.0926	1.99883e-3
64.2531	17.5871	0.273715	1.00000	1.00216	916.767	37.00	15.9915	1.99869e-3
64.7444	17.9129	0.276672	1.00000	1.01095	926.463	37.00	16.1498	1.99870e-3
65.3650	17.9805	0.275078	1.00000	1.02045	936.243	37.00	16.0549	1.99835e-3
65.8732	18.1567	0.275631	1.00000	1.02914	946.174	37.00	16.0801	1.99886e-3
66.7203	18.3827	0.275519	1.00000	1.04235	956.079	37.00	16.0650	1.99788e-3
67.4223	18.6169	0.276123	1.00000	1.05424	965.988	37.00	16.0912	1.99844e-3
68.0438	18.7698	0.275848	1.00000	1.06445	975.721	37.00	16.0698	1.99871e-3
68.9359	18.8549	0.273514	1.00000	1.07802	985.641	37.00	15.9321	1.99821e-3
69.5821	18.9085	0.271744	1.00000	1.08823	995.706	37.00	15.8281	1.99861e-3
70.0326	19.1985	0.274136	1.00000	1.09644	1005.70	37.00	15.9561	1.99901e-3
70.5742	19.2990	0.273457	1.00000	1.10501	1015.68	37.00	15.9136	1.99886e-3
71.2019	19.6243	0.275615	1.00000	1.11568	1025.43	36.99	16.0270	1.99848e-3
71.8348	19.6470	0.273502	1.00000	1.12535	1035.30	37.00	15.9048	1.99853e-3
72.4567	19.7409	0.272452	1.00000	1.13514	1045.22	37.00	15.8414	1.99853e-3
73.1972	20.0392	0.273771	1.00000	1.14743	1054.95	37.00	15.9079	1.99825e-3
73.7845	20.1640	0.273283	1.00000	1.15704	1064.73	37.00	15.8760	1.99862e-3
74.1973	20.2618	0.273080	1.00000	1.16382	1074.68	37.00	15.8614	1.99881e-3
74.9202	20.5409	0.274171	1.00000	1.17545	1084.59	36.99	15.9157	1.99800e-3
75.6664	20.6827	0.273341	1.00000	1.18743	1094.53	37.01	15.8640	1.99818e-3
76.1050	20.8416	0.273854	1.00000	1.19511	1103.77	37.00	15.8888	1.99883e-3
76.9105	21.1073	0.274440	1.00000	1.20803	1113.65	37.00	15.9149	1.99818e-3
77.6427	21.2636	0.273864	1.00000	1.21996	1123.61	36.99	15.8776	1.99848e-3
78.3872	21.3479	0.272339	1.00000	1.23153	1133.43	37.00	15.7881	1.99845e-3
79.1964	21.7220	0.274280	1.00000	1.24536	1143.17	37.00	15.8891	1.99847e-3
80.0444	21.7800	0.272099	1.00000	1.25810	1153.11	37.00	15.7630	1.99796e-3
80.5766	21.9374	0.272256	1.00000	1.26724	1163.18	37.00	15.7680	1.99864e-3
81.2076	22.0249	0.271218	1.00000	1.27704	1172.53	37.00	15.7065	1.99850e-3
81.8949	22.5496	0.275349	1.00000	1.28956	1182.55	37.00	15.9290	1.99833e-3
82.6489	22.4201	0.271269	1.00000	1.30046	1192.25	37.00	15.6997	1.99840e-3
83.4594	22.8158	0.273376	1.00000	1.31428	1202.02	37.00	15.8104	1.99827e-3
84.0571	22.8766	0.272156	1.00000	1.32384	1211.91	37.01	15.7394	1.99862e-3
85.0788	23.2572	0.273361	1.00000	1.34031	1222.03	37.00	15.7992	1.99776e-3
85.6281	23.3933	0.273196	1.00000	1.34977	1232.02	37.00	15.7868	1.99870e-3
86.5371	23.4949	0.271501	1.00000	1.36353	1242.09	37.00	15.6883	1.99808e-3
87.4862	23.7562	0.271542	1.00000	1.37882	1251.95	37.00	15.6850	1.99787e-3
88.5612	23.9278	0.270183	1.00000	1.39584	1261.84	37.00	15.6041	1.99791e-3
89.1339	24.2134	0.271652	1.00000	1.40649	1271.70	37.00	15.6816	1.99904e-3
90.1360	24.3952	0.270649	1.00000	1.42142	1281.69	37.00	15.6210	1.99767e-3
90.6817	24.5519	0.270748	1.00000	1.43088	1291.65	36.99	15.6235	1.99845e-3
91.8553	25.0550	0.272766	1.00000	1.44987	1301.43	37.00	15.7279	1.99724e-3
92.3975	25.0733	0.271364	1.00000	1.45918	1310.81	37.00	15.6482	1.99862e-3
93.5104	25.3053	0.270615	1.00000	1.47615	1320.56	37.00	15.6014	1.99756e-3
94.1040	25.3411	0.269288	1.00000	1.48619	1330.49	37.00	15.5256	1.99872e-3
95.2775	25.7426	0.270186	1.00000	1.50496	1340.57	37.00	15.5691	1.99783e-3
96.3949	25.9175	0.268868	1.00000	1.52283	1350.69	37.00	15.4915	1.99816e-3
97.0613	26.0383	0.268267	1.00000	1.53419	1360.66	37.00	15.4554	1.99917e-3
98.0014	26.2326	0.267676	1.00000	1.54813	1370.07	37.00	15.4187	1.99780e-3
98.9092	26.4674	0.267593	1.00000	1.56301	1380.08	37.00	15.4100	1.99795e-3
99.9546	27.0272	0.270395	1.00000	1.58089	1390.15	37.00	15.5589	1.99761e-3
101.015	27.0512	0.267794	1.00000	1.59720	1400.01	37.00	15.4118	1.99783e-3
101.843	27.1993	0.267070	1.00000	1.61070	1409.33	37.00	15.3687	1.99832e-3
102.678	27.5774	0.268582	1.00000	1.62512	1419.29	37.00	15.4480	1.99851e-3
103.690	27.5313	0.265515	1.00000	1.63979	1429.08	37.00	15.2758	1.99798e-3
104.583	27.9008	0.266782	1.00000	1.65491	1438.82	37.00	15.3417	1.99808e-3
105.425	28.0944	0.266487	1.00000	1.66846	1448.28	37.00	15.3222	1.99804e-3
106.266	28.4877	0.268078	1.00000	1.68251	1458.38	37.00	15.4061	1.99769e-3
107.403	28.5109	0.265458	1.00000	1.69963	1468.36	37.00	15.2583	1.99750e-3
108.266	28.7715	0.265748	1.00000	1.71417	1478.44	37.00	15.2709	1.99793e-3
109.134	28.9810	0.265554	1.00000	1.72867	1488.40	37.00	15.2572	1.99852e-3
109.916	29.1249	0.264975	1.00000	1.74072	1498.31	37.00	15.2226	1.99811e-3
111.048	29.4922	0.265580	1.00000	1.75891	1508.02	37.00	15.2518	1.99759e-3
111.960	29.7449	0.265675	1.00000	1.77392	1517.93	37.00	15.2538	1.99775e-3
112.745	30.0706	0.266712	1.00000	1.78746	1527.97	37.00	15.3079	1.99808e-3
113.683	30.2356	0.265965	1.00000	1.80232	1537.95	37.00	15.2639	1.99807e-3
114.668	30.5642	0.266546	1.00000	1.81853	1547.81	37.00	15.2924	1.99803e-3
115.526	30.5547	0.264483	1.00000	1.83170	1557.56	37.00	15.1767	1.99826e-3
116.432	30.7331	0.263958	1.00000	1.84577	1567.36	37.00	15.1452	1.99786e-3
117.482	31.0889	0.264626	1.00000	1.86295	1577.29	37.00	15.1784	1.99767e-3
118.221	31.3005	0.264763	1.00000	1.87550	1587.27	37.00	15.1836	1.99813e-3
119.317	31.4083	0.263234	1.00000	1.89178	1597.07	37.00	15.0966	1.99733e-3
120.185	31.8240	0.264792	1.00000	1.90730	1606.97	37.00	15.1793	1.99809e-3
121.258	31.8807	0.262917	1.00000	1.92365	1616.90	37.00	15.0736	1.99792e-3
122.240	32.2516	0.263838	1.00000	1.94002	1626.81	37.00	15.1211	1.99786e-3
122.899	32.3566	0.263278	1.00000	1.95134	1636.67	37.00	15.0886	1.99884e-3
124.037	32.5399	0.262341	1.00000	1.96810	1646.76	37.00	15.0342	1.99756e-3
124.964	32.9322	0.263534	1.00000	1.98391	1656.79	37.00	15.0969	1.99770e-3
126.031	33.1242	0.262825	1.00000	2.00085	1666.56	37.00	15.0553	1.99771e-3
126.915	33.6036	0.264771	1.00000	2.01650	1676.45	37.00	15.1593	1.99802e-3
128.075	33.7277	0.263343	1.00000	2.03429	1686.46	37.00	15.0782	1.99771e-3
128.861	33.9261	0.263277	1.00000	2.04779	1696.26	37.00	15.0726	1.99844e-3
129.818	34.0765	0.262493	1.00000	2.06228	1706.30	37.00	15.0273	1.99789e-3
130.783	34.5090	0.263865	1.00000	2.07809	1716.07	36.99	15.0999	1.99730e-3
131.981	34.6337	0.262413	1.00000	2.09686	1725.95	37.00	15.0176	1.99741e-3
132.920	34.9378	0.262847	1.00000	2.11291	1735.81	37.00	15.0390	1.99798e-3
133.996	35.2076	0.262750	1.00000	2.13019	1745.76	37.00	15.0312	1.99787e-3
135.117	35.4465	0.262340	1.00000	2.14811	1755.20	37.00	15.0062	1.99783e-3
136.151	35.6698	0.261987	1.00000	2.16463	1765.17	37.00	14.9845	1.99776e-3
137.092	35.8772	0.261702	1.00000	2.18014	1774.95	37.00	14.9668	1.99815e-3
138.081	36.1668	0.261924	1.00000	2.19594	1784.90	37.00	14.9767	1.99777e-3
139.308	36.5589	0.262433	1.00000	2.21528	1795.01	37.00	15.0018	1.99705e-3
140.397	36.8201	0.262257	1.00000	2.23362	1805.06	37.00	14.9899	1.99773e-3
141.434	36.9614	0.261333	1.00000	2.25019	1815.15	37.00	14.9372	1.99798e-3
142.397	37.1717	0.261043	1.00000	2.26585	1825.20	37.00	14.9194	1.99817e-3
143.433	37.5338	0.261682	1.00000	2.28235	1834.56	37.00	14.9522	1.99762e-3
144.387	37.7903	0.261728	1.00000	2.29815	1844.51	37.00	14.9527	1.99784e-3
145.608	38.0572	0.261367	1.00000	2.31697	1854.60	37.00	14.9306	1.99719e-3
146.651	38.3979	0.261832	1.00000	2.33484	1864.64	37.00	14.9539	1.99779e-3
147.894	38.6240	0.261159	1.00000	2.35456	1874.67	37.00	14.9148	1.99774e-3
148.750	38.7001	0.260168	1.00000	2.36864	1884.05	36.99	14.8591	1.99844e-3
149.807	39.2030	0.261689	1.00000	2.38617	1893.86	37.00	14.9401	1.99800e-3
151.059	39.3659	0.260599	1.00000	2.40524	1903.66	37.00	14.8783	1.99743e-3
152.134	39.6739	0.260783	1.00000	2.42258	1913.52	37.00	14.8863	1.99736e-3
153.303	39.9167	0.260378	1.00000	2.44120	1923.24	37.00	14.8622	1.99722e-3
154.462	40.3212	0.261044	1.00000	2.46066	1933.11	37.00	14.8964	1.99748e-3
155.741	40.3282	0.258944	1.00000	2.47990	1942.99	37.00	14.7797	1.99728e-3
156.382	40.7721	0.260721	1.00000	2.49297	1953.03	37.00	14.8755	1.99860e-3
157.842	40.8442	0.258765	1.00000	2.51381	1963.12	37.00	14.7664	1.99734e-3
158.763	41.1917	0.259455	1.00000	2.52993	1973.20	37.00	14.8025	1.99792e-3
159.890	41.5402	0.259805	1.00000	2.54795	1983.13	36.99	14.8197	1.99751e-3
160.964	41.9910	0.260872	1.00000	2.56609	1993.07	37.00	14.8762	1.99755e-3
162.248	41.9569	0.258598	1.00000	2.58526	2002.80	37.00	14.7501	1.99748e-3
163.497	42.6149	0.260647	1.00000	2.60703	2012.66	37.00	14.8598	1.99756e-3
164.622	42.5101	0.258229	1.00000	2.62537	2022.57	37.00	14.7263	1.99886e-3
165.988	42.8575	0.258196	1.00000	2.64545	2032.56	37.00	14.7224	1.99731e-3
